wavelength,intensity
354,0
354.36,127
354.72,127
355.08,134
355.44,133
355.8,132
356.16,133
356.52,134
356.88,132
357.24,133
357.6,137
357.96,141
358.32,136
358.68,135
359.04,135
359.4,135
359.76,133
360.11,134
360.47,134
360.83,136
361.19,133
361.55,131
361.91,133
362.27,127
362.63,129
362.99,134
363.35,136
363.71,139
364.06,135
364.42,136
364.78,138
365.14,137
365.5,138
365.86,139
366.22,137
366.58,135
366.93,136
367.29,134
367.65,135
368.01,136
368.37,136
368.73,135
369.09,136
369.44,134
369.8,137
370.16,139
370.52,138
370.88,136
371.24,137
371.59,137
371.95,135
372.31,138
372.67,138
373.03,137
373.38,140
373.74,139
374.1,137
374.46,138
374.82,140
375.17,138
375.53,135
375.89,138
376.25,136
376.6,137
376.96,142
377.32,137
377.68,137
378.03,139
378.39,137
378.75,135
379.11,137
379.46,139
379.82,138
380.18,137
380.54,137
380.89,138
381.25,137
381.61,136
381.96,138
382.32,143
382.68,138
383.04,134
383.39,137
383.75,138
384.11,138
384.46,136
384.82,138
385.18,142
385.53,138
385.89,136
386.25,138
386.6,141
386.96,139
387.32,136
387.67,139
388.03,143
388.39,141
388.74,142
389.1,139
389.45,137
389.81,140
390.17,141
390.52,138
390.88,136
391.24,136
391.59,137
391.95,138
392.3,138
392.66,137
393.02,138
393.37,137
393.73,138
394.08,139
394.44,135
394.79,140
395.15,141
395.51,142
395.86,138
396.22,137
396.57,141
396.93,145
397.28,141
397.64,136
398,136
398.35,136
398.71,136
399.06,137
399.42,136
399.77,140
400.13,138
400.48,137
400.84,141
401.19,140
401.55,137
401.9,141
402.26,138
402.61,138
402.97,138
403.32,138
403.68,141
404.03,142
404.39,145
404.74,139
405.1,145
405.45,142
405.8,144
406.16,139
406.51,137
406.87,140
407.22,143
407.58,140
407.93,138
408.29,139
408.64,141
408.99,137
409.35,141
409.7,143
410.06,146
410.41,142
410.77,142
411.12,143
411.47,141
411.83,141
412.18,140
412.53,140
412.89,143
413.24,142
413.6,142
413.95,146
414.3,152
414.66,150
415.01,154
415.36,153
415.72,151
416.07,149
416.43,150
416.78,151
417.13,151
417.49,147
417.84,152
418.19,153
418.55,153
418.9,159
419.25,156
419.6,159
419.96,157
420.31,161
420.66,156
421.02,163
421.37,167
421.72,168
422.08,170
422.43,163
422.78,176
423.13,178
423.49,175
423.84,179
424.19,183
424.54,183
424.9,195
425.25,198
425.6,193
425.95,200
426.31,202
426.66,211
427.01,211
427.36,213
427.72,230
428.07,233
428.42,241
428.77,239
429.12,247
429.48,262
429.83,266
430.18,262
430.53,279
430.88,281
431.24,295
431.59,317
431.94,314
432.29,326
432.64,330
432.99,348
433.35,366
433.7,380
434.05,393
434.4,390
434.75,402
435.1,418
435.46,431
435.81,449
436.16,463
436.51,485
436.86,503
437.21,513
437.56,538
437.91,552
438.27,568
438.62,596
438.97,616
439.32,646
439.67,670
440.02,679
440.37,715
440.72,750
441.07,776
441.42,773
441.77,836
442.12,855
442.48,882
442.83,911
443.18,962
443.53,1018
443.88,1004
444.23,1071
444.58,1104
444.93,1155
445.28,1156
445.63,1242
445.98,1265
446.33,1326
446.68,1357
447.03,1431
447.38,1453
447.73,1488
448.08,1585
448.43,1572
448.78,1645
449.13,1733
449.48,1746
449.83,1719
450.18,1893
450.53,1815
450.88,1869
451.23,1911
451.58,1963
451.93,2009
452.28,1993
452.63,2049
452.98,2128
453.33,2074
453.67,2170
454.02,2092
454.37,2117
454.72,2170
455.07,2200
455.42,2179
455.77,2214
456.12,2239
456.47,2262
456.82,2258
457.17,2234
457.52,2327
457.86,2374
458.21,2293
458.56,2319
458.91,2356
459.26,2242
459.61,2265
459.96,2346
460.31,2267
460.65,2271
461,2265
461.35,2212
461.7,2131
462.05,2249
462.4,2130
462.74,2111
463.09,2080
463.44,2047
463.79,2012
464.14,1906
464.49,1871
464.83,1886
465.18,1787
465.53,1783
465.88,1678
466.23,1659
466.57,1702
466.92,1585
467.27,1555
467.62,1460
467.97,1464
468.31,1448
468.66,1393
469.01,1382
469.36,1341
469.7,1320
470.05,1304
470.4,1268
470.75,1230
471.09,1192
471.44,1199
471.79,1180
472.14,1149
472.48,1111
472.83,1134
473.18,1116
473.52,1069
473.87,1074
474.22,1029
474.57,1014
474.91,1015
475.26,996
475.61,991
475.95,954
476.3,937
476.65,935
476.99,938
477.34,911
477.69,893
478.03,879
478.38,857
478.73,860
479.07,821
479.42,814
479.77,789
480.11,788
480.46,787
480.8,749
481.15,753
481.5,742
481.84,729
482.19,725
482.54,709
482.88,694
483.23,687
483.57,659
483.92,657
484.27,650
484.61,631
484.96,638
485.3,604
485.65,611
485.99,583
486.34,583
486.69,581
487.03,583
487.38,572
487.72,582
488.07,569
488.41,565
488.76,563
489.1,547
489.45,546
489.79,534
490.14,543
490.48,548
490.83,544
491.17,545
491.52,533
491.86,520
492.21,529
492.55,549
492.9,519
493.24,529
493.59,531
493.93,533
494.28,543
494.62,543
494.97,532
495.31,521
495.66,537
496,543
496.35,547
496.69,537
497.04,571
497.38,555
497.72,553
498.07,562
498.41,567
498.76,574
499.1,591
499.44,573
499.79,583
500.13,600
500.48,598
500.82,599
501.16,624
501.51,632
501.85,623
502.2,631
502.54,650
502.88,656
503.23,685
503.57,671
503.91,704
504.26,698
504.6,702
504.95,718
505.29,732
505.63,754
505.98,772
506.32,776
506.66,794
507.01,805
507.35,797
507.69,826
508.03,848
508.38,843
508.72,870
509.06,882
509.41,899
509.75,931
510.09,947
510.44,969
510.78,963
511.12,989
511.46,1012
511.81,1030
512.15,1048
512.49,1059
512.83,1081
513.18,1080
513.52,1106
513.86,1133
514.2,1132
514.55,1164
514.89,1176
515.23,1218
515.57,1222
515.91,1255
516.26,1264
516.6,1285
516.94,1309
517.28,1328
517.62,1332
517.97,1364
518.31,1370
518.65,1363
518.99,1398
519.33,1424
519.68,1450
520.02,1459
520.36,1473
520.7,1516
521.04,1498
521.38,1512
521.73,1525
522.07,1542
522.41,1541
522.75,1558
523.09,1544
523.43,1583
523.77,1574
524.11,1593
524.46,1602
524.8,1601
525.14,1629
525.48,1624
525.82,1615
526.16,1643
526.5,1627
526.84,1610
527.18,1632
527.52,1636
527.86,1631
528.21,1606
528.55,1615
528.89,1632
529.23,1593
529.57,1584
529.91,1614
530.25,1603
530.59,1602
530.93,1595
531.27,1593
531.61,1599
531.95,1587
532.29,1546
532.63,1562
532.97,1574
533.31,1543
533.65,1554
533.99,1541
534.33,1538
534.67,1556
535.01,1524
535.35,1525
535.69,1527
536.03,1506
536.37,1513
536.71,1500
537.05,1474
537.39,1499
537.73,1488
538.07,1486
538.41,1480
538.75,1465
539.08,1444
539.42,1465
539.76,1456
540.1,1450
540.44,1449
540.78,1434
541.12,1418
541.46,1413
541.8,1402
542.14,1418
542.48,1443
542.81,1412
543.15,1410
543.49,1407
543.83,1366
544.17,1395
544.51,1398
544.85,1391
545.19,1405
545.52,1378
545.86,1384
546.2,1405
546.54,1393
546.88,1375
547.22,1364
547.55,1357
547.89,1343
548.23,1387
548.57,1376
548.91,1358
549.25,1340
549.58,1371
549.92,1363
550.26,1359
550.6,1355
550.94,1347
551.27,1349
551.61,1349
551.95,1359
552.29,1372
552.62,1359
552.96,1349
553.3,1340
553.64,1379
553.97,1348
554.31,1362
554.65,1331
554.99,1361
555.32,1362
555.66,1339
556,1339
556.34,1355
556.67,1338
557.01,1348
557.35,1339
557.68,1339
558.02,1350
558.36,1348
558.69,1352
559.03,1353
559.37,1351
559.71,1365
560.04,1350
560.38,1356
560.72,1375
561.05,1356
561.39,1366
561.72,1355
562.06,1344
562.4,1337
562.73,1362
563.07,1352
563.41,1346
563.74,1372
564.08,1355
564.42,1359
564.75,1353
565.09,1376
565.42,1372
565.76,1363
566.1,1358
566.43,1377
566.77,1391
567.1,1376
567.44,1363
567.77,1368
568.11,1384
568.45,1363
568.78,1381
569.12,1375
569.45,1357
569.79,1365
570.12,1362
570.46,1378
570.79,1372
571.13,1377
571.47,1368
571.8,1378
572.14,1379
572.47,1361
572.81,1372
573.14,1365
573.48,1365
573.81,1355
574.15,1359
574.48,1341
574.82,1379
575.15,1380
575.49,1342
575.82,1364
576.15,1347
576.49,1373
576.82,1325
577.16,1331
577.49,1331
577.83,1346
578.16,1333
578.5,1333
578.83,1336
579.16,1324
579.5,1329
579.83,1351
580.17,1305
580.5,1311
580.84,1332
581.17,1323
581.5,1338
581.84,1286
582.17,1303
582.51,1290
582.84,1315
583.17,1287
583.51,1292
583.84,1286
584.17,1274
584.51,1279
584.84,1297
585.17,1254
585.51,1266
585.84,1252
586.17,1253
586.51,1255
586.84,1229
587.17,1242
587.51,1235
587.84,1241
588.17,1219
588.51,1225
588.84,1217
589.17,1214
589.51,1220
589.84,1214
590.17,1201
590.5,1209
590.84,1213
591.17,1184
591.5,1192
591.84,1202
592.17,1190
592.5,1191
592.83,1198
593.17,1196
593.5,1175
593.83,1177
594.16,1167
594.5,1174
594.83,1158
595.16,1150
595.49,1158
595.82,1158
596.16,1123
596.49,1165
596.82,1146
597.15,1141
597.48,1150
597.82,1150
598.15,1116
598.48,1138
598.81,1127
599.14,1133
599.47,1112
599.81,1120
600.14,1114
600.47,1124
600.8,1105
601.13,1097
601.46,1094
601.79,1113
602.13,1106
602.46,1109
602.79,1100
603.12,1080
603.45,1077
603.78,1077
604.11,1109
604.44,1071
604.77,1078
605.11,1066
605.44,1078
605.77,1087
606.1,1085
606.43,1053
606.76,1086
607.09,1078
607.42,1063
607.75,1083
608.08,1069
608.41,1071
608.74,1078
609.07,1075
609.4,1079
609.73,1071
610.06,1072
610.39,1056
610.72,1061
611.05,1067
611.38,1062
611.71,1069
612.04,1069
612.37,1078
612.7,1075
613.03,1074
613.36,1082
613.69,1071
614.02,1112
614.35,1084
614.68,1111
615.01,1104
615.34,1084
615.67,1121
616,1106
616.33,1122
616.66,1095
616.99,1122
617.32,1159
617.65,1128
617.98,1134
618.3,1147
618.63,1163
618.96,1144
619.29,1178
619.62,1161
619.95,1183
620.28,1197
620.61,1214
620.94,1237
621.26,1235
621.59,1228
621.92,1251
622.25,1277
622.58,1272
622.91,1290
623.24,1300
623.56,1328
623.89,1331
624.22,1337
624.55,1366
624.88,1379
625.21,1417
625.53,1401
625.86,1413
626.19,1440
626.52,1467
626.85,1474
627.17,1487
627.5,1493
627.83,1534
628.16,1554
628.49,1560
628.81,1570
629.14,1585
629.47,1599
629.8,1601
630.12,1601
630.45,1613
630.78,1595
631.11,1589
631.43,1572
631.76,1534
632.09,1551
632.41,1499
632.74,1509
633.07,1463
633.4,1418
633.72,1370
634.05,1338
634.38,1306
634.7,1295
635.03,1224
635.36,1210
635.68,1131
636.01,1104
636.34,1080
636.66,1013
636.99,1011
637.32,955
637.64,942
637.97,923
638.3,895
638.62,873
638.95,829
639.28,815
639.6,805
639.93,777
640.25,750
640.58,731
640.91,724
641.23,719
641.56,694
641.88,676
642.21,659
642.54,666
642.86,653
643.19,635
643.51,625
643.84,610
644.16,599
644.49,600
644.82,568
645.14,585
645.47,569
645.79,560
646.12,558
646.44,535
646.77,533
647.09,534
647.42,531
647.74,518
648.07,513
648.39,505
648.72,502
649.04,509
649.37,498
649.69,493
650.02,478
650.34,482
650.67,468
650.99,457
651.32,463
651.64,453
651.96,457
652.29,453
652.61,435
652.94,441
653.26,442
653.59,436
653.91,435
654.23,435
654.56,422
654.88,417
655.21,429
655.53,418
655.85,410
656.18,401
656.5,410
656.83,410
657.15,400
657.47,392
657.8,393
658.12,393
658.44,386
658.77,386
659.09,376
659.41,384
659.74,378
660.06,385
660.39,379
660.71,388
661.03,377
661.35,377
661.68,357
662,370
662.32,359
662.65,368
662.97,361
663.29,351
663.62,357
663.94,354
664.26,350
664.58,342
664.91,344
665.23,343
665.55,334
665.87,346
666.2,334
666.52,332
666.84,331
667.16,323
667.49,325
667.81,334
668.13,325
668.45,315
668.77,313
669.1,318
669.42,307
669.74,320
670.06,310
670.38,312
670.71,302
671.03,311
671.35,303
671.67,292
671.99,307
672.31,295
672.64,299
672.96,294
673.28,291
673.6,297
673.92,294
674.24,287
674.56,287
674.89,285
675.21,291
675.53,286
675.85,288
676.17,284
676.49,282
676.81,288
677.13,286
677.45,277
677.77,278
678.1,267
678.42,275
678.74,283
679.06,262
679.38,264
679.7,270
680.02,266
680.34,270
680.66,275
680.98,257
681.3,259
681.62,260
681.94,253
682.26,257
682.58,258
682.9,249
683.22,251
683.54,252
683.86,241
684.18,241
684.5,244
684.82,247
685.14,235
685.46,244
685.78,240
686.1,246
686.42,238
686.74,238
687.06,240
687.38,237
687.7,231
688.02,237
688.34,231
688.65,235
688.97,240
689.29,227
689.61,227
689.93,226
690.25,217
690.57,222
690.89,230
691.21,222
691.53,229
691.84,219
692.16,213
692.48,224
692.8,227
693.12,220
693.44,213
693.76,215
694.07,212
694.39,211
694.71,211
695.03,207
695.35,211
695.67,214
695.98,206
696.3,204
696.62,212
696.94,209
697.26,205
697.57,208
697.89,210
698.21,202
698.53,201
698.84,200
699.16,202
699.48,204
699.8,199
700.12,193
700.43,199
700.75,197
701.07,192
701.38,194
701.7,196
702.02,193
702.34,196
702.65,197
702.97,191
703.29,194
703.61,191
703.92,194
704.24,194
704.56,182
704.87,192
705.19,191
705.51,189
705.82,186
706.14,187
706.46,192
706.77,184
707.09,185
707.41,185
707.72,186
708.04,176
708.35,173
708.67,177
708.99,178
709.3,175
709.62,183
709.94,180
710.25,183
710.57,178
710.88,179
711.2,177
711.51,177
711.83,178
712.15,177
712.46,179
712.78,174
713.09,178
713.41,174
713.72,171
714.04,176
714.36,179
714.67,172
714.99,172
715.3,174
715.62,170
715.93,169
716.25,167
716.56,162
716.88,171
717.19,166
717.51,170
717.82,170
718.14,173
718.45,164
718.77,165
719.08,167
719.4,165
719.71,169
720.02,168
720.34,162
720.65,160
720.97,170
721.28,164
721.6,165
721.91,159
722.22,157
722.54,164
722.85,159
723.17,159
723.48,163
723.79,160
724.11,162
724.42,157
724.74,157
725.05,163
725.36,157
725.68,159
725.99,162
726.3,161
726.62,160
726.93,163
727.25,160
727.56,158
727.87,156
728.19,154
728.5,157
728.81,158
729.12,158
729.44,155
729.75,155
730.06,156
730.38,156
730.69,154
731,156
731.32,160
731.63,155
731.94,153
732.25,151
732.57,158
732.88,155
733.19,154
733.5,152
733.82,157
734.13,156
734.44,160
734.75,159
735.07,153
735.38,156
735.69,158
736,157
736.31,152
736.63,156
736.94,149
737.25,155
737.56,155
737.87,153
738.18,152
738.5,153
738.81,157
739.12,152
739.43,149
739.74,154
740.05,150
740.37,152
740.68,150
740.99,148
741.3,149
741.61,149
741.92,151
742.23,155
742.54,151
742.86,148
743.17,148
743.48,150
743.79,148
744.1,153
744.41,149
744.72,149
745.03,151
745.34,147
745.65,150
745.96,151
746.27,146
746.58,150
746.89,150
747.2,148
747.51,150
747.82,147
748.13,147
748.45,148
748.76,144
749.07,147
749.38,147
749.69,151
749.99,148
750.3,149
750.61,146
750.92,144
751.23,149
751.54,148
751.85,146
752.16,149
752.47,149
752.78,148
753.09,143
753.4,147
753.71,147
754.02,146
754.33,146
754.64,146
754.95,144
755.26,145
755.56,151
755.87,147
756.18,151
756.49,149
756.8,148
757.11,143
757.42,146
757.73,145
758.03,149
758.34,145
758.65,145
758.96,147
759.27,145
759.58,141
759.89,141
760.19,144
760.5,144
760.81,140
761.12,143
761.43,143
761.73,141
762.04,147
762.35,143
762.66,142
762.97,141
763.27,139
763.58,139
763.89,144
764.2,142
764.5,141
764.81,140
765.12,143
765.43,148
765.73,144
766.04,143
766.35,139
766.66,138
766.96,139
767.27,141
767.58,146
767.88,142
768.19,138
768.5,141
768.81,142
769.11,139
769.42,141
769.73,141
770.03,141
770.34,142
770.65,139
770.95,138
771.26,142
771.56,141
771.87,139
772.18,139
772.48,139
772.79,141
773.1,138
773.4,141
773.71,138
774.01,138
774.32,141
774.63,141
774.93,139
775.24,141
775.54,141
775.85,139
776.16,139
776.46,142
776.77,142
777.07,139
777.38,138
777.68,139
777.99,137
778.29,136
778.6,142
778.9,140
779.21,139
779.51,140
779.82,144
780.12,142
780.43,142
780.73,140
781.04,141
781.34,138
781.65,138
781.95,138
782.26,136
782.56,138
782.87,141
783.17,137
783.48,140
783.78,140
784.09,138
784.39,141
784.69,138
785,138
785.3,138
785.61,137
785.91,144
786.21,143
786.52,140
786.82,138
787.13,145
787.43,141
787.73,142
788.04,137
788.34,139
788.65,140
788.95,143
789.25,145
789.56,140
789.86,143
790.16,140
790.47,136
790.77,138
791.07,142
791.38,140
791.68,140
791.98,141
792.29,140
792.59,140
792.89,139
793.19,139
793.5,141
793.8,145
794.1,142
794.4,140
794.71,137
795.01,137
795.31,139
795.62,136
795.92,134
796.22,136
796.52,136
796.82,136
797.13,136
797.43,136
797.73,138
798.03,143
798.34,142
798.64,142
798.94,140
799.24,140
799.54,137
799.84,138
800.15,136
800.45,138
800.75,139
801.05,136
801.35,140
801.65,137
801.96,136
802.26,141
802.56,142
802.86,138
803.16,136
803.46,141
803.76,145
804.06,140
804.36,138
804.67,134
804.97,139
805.27,143
805.57,146
805.87,141
806.17,138
806.47,141
806.77,137
807.07,137
807.37,135
807.67,134
807.97,137
808.27,139
808.57,138
808.87,139
809.17,135
809.47,141
809.77,141
810.07,134
810.37,138
810.67,141
810.97,139
811.27,137
811.57,140
811.87,142
812.17,140
812.47,137
812.77,142
813.07,141
813.37,138
813.67,139
813.97,136
814.27,137
814.57,146
814.87,140
815.17,135
815.47,138
815.76,135
816.06,136
816.36,139
816.66,135
816.96,138
817.26,135
817.56,136
817.86,134
818.16,137
818.45,144
818.75,136
819.05,138
819.35,139
819.65,135
819.95,135
820.24,138
820.54,136
820.84,133
821.14,136
821.44,134
821.74,138
822.03,139
822.33,139
822.63,140
822.93,139
823.22,136
823.52,135
823.82,138
824.12,137
824.42,141
824.71,140
825.01,140
825.31,136
825.61,133
825.9,139
826.2,133
826.5,140
826.79,139
827.09,141
827.39,141
827.69,137
827.98,145
828.28,140
828.58,139
828.87,133
829.17,135
829.47,136
829.76,137
830.06,141
830.36,137
830.65,138
830.95,135
831.25,138
831.54,137
831.84,137
832.13,134
832.43,136
832.73,139
833.02,139
833.32,140
833.61,133
833.91,132
834.21,130
834.5,134
834.8,139
835.09,138
835.39,138
835.68,137
835.98,140
836.28,138
836.57,138
836.87,136
837.16,135
837.46,140
837.75,141
838.05,138
838.34,136
838.64,141
838.93,141
839.23,138
839.52,139
839.82,136
840.11,131
840.41,135
840.7,133
841,131
841.29,136
841.59,137
841.88,137
842.17,136
842.47,140
842.76,139
843.06,142
843.35,142
843.65,136
843.94,134
844.23,137
844.53,141
844.82,137
845.12,133
845.41,136
845.7,137
846,138
846.29,141
846.58,143
846.88,141
847.17,139
847.47,137
847.76,136
848.05,138
848.35,141
848.64,136
848.93,136
849.23,138
849.52,138
849.81,137
850.1,140
850.4,140
850.69,140
850.98,137
851.28,134
851.57,133
851.86,132
852.15,135
852.45,141
852.74,140
853.03,137
853.32,139
853.62,136
853.91,140
854.2,143
854.49,140
854.79,136
855.08,138
855.37,140
855.66,141
855.95,138
856.25,138
856.54,138
856.83,138
857.12,139
857.41,141
857.71,135
858,139
858.29,141
858.58,138
858.87,137
859.16,137
859.45,141
859.75,140
860.04,141
860.33,138
860.62,141
860.91,138
861.2,140
861.49,142
861.78,144
862.07,142
862.36,144
862.66,142
862.95,139
863.24,137
863.53,140
863.82,143
864.11,143
864.4,139
864.69,137
864.98,140
865.27,143
865.56,144
865.85,142
866.14,138
866.43,137
866.72,140
867.01,141
867.3,143
867.59,138
867.88,143
868.17,139
868.46,142
868.75,143
869.04,145
869.33,142
869.62,146
869.91,146
870.2,144
870.49,144
870.77,145
871.06,140
871.35,141
871.64,140
871.93,143
872.22,143
872.51,147
872.8,142
873.09,146
873.38,137
873.66,138
873.95,143
874.24,142
874.53,144
874.82,146
875.11,143
875.4,143
875.68,147
875.97,147
876.26,146
876.55,143
876.84,145
877.13,149
877.41,153
877.7,146
877.99,142
878.28,146
878.57,147
878.85,144
879.14,140
879.43,146
879.72,149
880,144
880.29,146
880.58,142
880.87,143
881.15,145
881.44,148
881.73,147
882.01,146
882.3,147
882.59,147
882.88,146
883.16,151
883.45,149
883.74,147
884.02,145
884.31,149
884.6,146
884.88,148
885.17,149
885.46,151
885.74,146
886.03,146
886.32,153
886.6,151
886.89,152
887.17,147
887.46,146
887.75,145
888.03,145
888.32,146
888.61,146
888.89,150
889.18,154
889.46,151
889.75,154
890.03,154
890.32,153
890.61,153
890.89,155
891.18,156
891.46,158
891.75,155
892.03,154
892.32,151
892.6,150
892.89,152
893.17,154
893.46,148
893.74,152
894.03,147
894.31,154
894.6,157
894.88,157
895.17,155
895.45,155
895.74,149
896.02,149
896.31,159
896.59,152
896.87,149
897.16,151
897.44,154
897.73,153
898.01,155
898.29,155
898.58,153
898.86,156
899.15,155
899.43,152
899.71,156
900,150
900.28,147
900.57,155
900.85,154
901.13,151
901.42,150
901.7,157
901.98,162
902.27,153
902.55,155
902.83,156
903.12,154
903.4,156
903.68,156
903.97,155
904.25,157
904.53,152
904.81,151
905.1,155
905.38,155
905.66,153
905.95,154
906.23,155
906.51,154
906.79,154
907.07,154
907.36,157
907.64,159
907.92,156
908.2,154
908.49,154
908.77,159
909.05,160
909.33,156
909.61,162
909.9,161
910.18,153
910.46,154
910.74,157
911.02,156
911.3,156
911.59,154
911.87,152
912.15,154
912.43,151
912.71,151
912.99,160
913.27,154
913.56,155
913.84,156
914.12,149
914.4,153
914.68,153
914.96,153
915.24,155
915.52,151
915.8,152
916.08,151
916.36,152
916.64,157
916.92,153
917.21,153
917.49,155
917.77,149
918.05,149
918.33,149
918.61,149
918.89,149
919.17,158
919.45,157
919.73,151
920.01,152
920.29,156
920.57,149
920.85,150
921.13,150
921.4,151
921.68,147
921.96,150
922.24,149
922.52,145
922.8,145
923.08,149
923.36,145
923.64,153
923.92,152
924.2,151
924.48,151
924.76,149
925.03,145
925.31,147
925.59,150
925.87,148
926.15,146
926.43,149
926.71,147
926.99,143
927.26,144
927.54,143
927.82,138
928.1,147
928.38,145
928.65,144
928.93,146
929.21,140
929.49,144
929.77,147
930.04,147
930.32,143
930.6,145
930.88,145
931.16,146
931.43,148
931.71,145
931.99,144
932.27,146
932.54,144
932.82,143
933.1,141
933.38,141
933.65,140
933.93,143
934.21,146
934.48,140
934.76,142
935.04,140
935.31,142
935.59,143
935.87,139
936.14,143
936.42,141
936.7,138
936.97,137
937.25,138
937.53,144
937.8,145
938.08,143
938.36,142
938.63,139
938.91,146
939.18,145
939.46,145
939.74,143
940.01,140
940.29,138
940.56,143
940.84,139
941.11,139
941.39,139
941.67,138
941.94,138
942.22,140
942.49,139
942.77,140
943.04,134
943.32,140
943.59,138
943.87,137
944.14,136
944.42,136
944.69,139
944.97,138
945.24,139
945.52,137
945.79,138
946.07,150
946.34,146
946.62,140
946.89,142
947.16,140
947.44,140
947.71,135
947.99,136
948.26,136
948.54,138
948.81,138
949.08,137
949.36,133
949.63,137
949.91,136
950.18,137
950.45,134
950.73,134
951,136
951.27,136
951.55,138
951.82,139
952.09,139
952.37,139
952.64,140
952.91,142
953.19,138
953.46,139
953.73,139
954.01,141
954.28,139
954.55,136
954.82,136
955.1,138
955.37,138
955.64,138
955.92,135
956.19,136
956.46,136
956.73,136
957.01,137
957.28,132
957.55,137
957.82,134
958.09,135
958.37,136
958.64,138
958.91,139
959.18,141
959.45,140
959.73,140
960,138
960.27,138
960.54,136
960.81,135
961.08,137
961.36,139
961.63,134
961.9,136
962.17,138
962.44,137
962.71,134
962.98,135
963.25,135
963.53,139
963.8,137
964.07,136
964.34,139
964.61,136
964.88,134
965.15,135
965.42,137
965.69,131
965.96,134
966.23,140
966.5,136
966.77,140
967.04,138
967.31,133
967.58,132
967.85,138
968.12,136
968.39,133
968.66,134
968.93,132
969.2,135
969.47,136
969.74,138
970.01,137
970.28,143
970.55,135
970.82,134
971.09,140
971.36,143
971.63,136
971.9,139
972.17,141
972.44,140
972.71,138
972.97,137
973.24,138
973.51,142
973.78,139
974.05,137
974.32,135
974.59,140
974.86,137
975.12,134
975.39,136
975.66,137
975.93,137
976.2,133
976.47,136
976.73,142
977,140
977.27,137
977.54,135
977.81,139
978.07,138
978.34,138
978.61,135
978.88,132
979.15,133
979.41,135
979.68,141
979.95,139
980.22,137
980.48,138
980.75,138
981.02,136
981.29,135
981.55,138
981.82,137
982.09,134
982.35,135
982.62,134
982.89,134
983.15,139
983.42,135
983.69,138
983.95,137
984.22,140
984.49,139
984.75,133
985.02,136
985.29,135
985.55,138
985.82,138
986.09,135
986.35,138
986.62,137
986.88,135
987.15,134
987.42,132
987.68,133
987.95,133
988.21,136
988.48,140
988.74,139
989.01,138
989.27,140
989.54,137
989.81,137
990.07,139
990.34,136
990.6,137
990.87,137
991.13,138
991.4,141
991.66,137
991.93,137
992.19,142
992.46,136
992.72,136
992.99,137
993.25,134
993.51,138
993.78,139
994.04,135
994.31,135
994.57,135
994.84,138
995.1,138
995.36,137
995.63,140
995.89,137
996.16,134
996.42,137
996.68,141
996.95,139
997.21,134
997.48,132
997.74,133
998,135
998.27,139
998.53,137
998.79,137
999.06,135
999.32,133
999.58,134